                                                                                                                        
                                                                                                                        
                  *** CONTINUA mt_ckd_3.5                                                                               
                                                                                 Most recent significant change         
                         H2O  SELF  (T)     0 - 20000 CM-1              mt_ckd_3.5 - modify Cs,Tdep < 800 cm-1(Oct 2020)
                              AIR           0 - 20000 CM-1              mt_ckd_3.5 - modify 0-40 cm-1         (Oct 2020)
                         CO2  AIR           0 - 10000 CM-1              mt_ckd_2.5 - modify 2000-3000 cm-1    (Jan 2010)
                              AIR   (T)  2386 -  2434 CM-1              mt_ckd_2.5 - temperature dep. added   (Jan 2010)
                         N2   SELF  (T)     0 -   350 CM-1              ckd_2.2    - Borysow Fromhold         (Feb 1996)
                              AIR   (T)     0 -   350 CM-1              mt_ckd_2.1 - incl. O2 rel. efficiency (Sep 2004)
                              AIR   (T)  1993 -  2905 CM-1              mt_ckd_2.8 - N2-H2O Mlawer/Alvarado   (Mar 2016)
                              AIR        4340 -  4910 CM-1              mt_ckd_2.7 - Mlawer and Gombos        (May 2015)
                         O2   AIR   (T)  1340 -  1850 CM-1              ckd_2.4.1  - Thibault et al.          (Mar 1998)
                              O2/N2      7550 -  8486 CM-1              ckd_2.4.1  - Mate et al.              (Feb 2000)
                              AIR        9100 - 11000 CM-1              ckd_2.4.1  - Mlawer et al.            (Aug 1999)
                              AIR       12950 - 13220 CM-1 A-band       mt_ckd_3.4 - Mlawer                   (May 2020)
                              O2        15000 - 29870 CM-1              ckd_2.4.2  - Greenblatt et al.        (May 2000)
                              O2/N2     36000 -  >>>> CM-1 HERZBERG     ckd_0                                           
                              AIR       55000 - 87000 CM-1 FAR-UV       mt_ckd_3.3 - Lu et al.                (Aug 2018)
                         O3   AIR   (T)  9170 - 24565 CM-1 CHAPP/WULF   ckd_2.2                               (Feb 1996)
                                    (T) 27370 - 40800 CM-1 HARTL/HUGG   ckd_0                                           
                                        40800 - 54000 CM-1 HARTL/HUGG   ckd_0                                           
                                                                                                                        
                                                                                                                        
                                                                                                                        
                                                                                                                        
Continuum    LBL_n                      Description of Modification                                            Date     
---------    -----                    -------------------------------                                          ----     
                    H2O SELF HAS BEEN REDUCED IN THE 800-1200 CM-1 REGION                                  (01 SEP 1985)
                    03       TEMPERATURE DEPENDENCE HAS BEEN CORRECTED                                     (01 MAY 1987)
                    02       (1390-1760) HAS BEEN REDUCED (FACTOR = 0.78)                                  (07 MAR 1990)
 ckd_1.0      2.2   H2O SELF HAS BEEN REDUCED IN THE 1100-1500 CM-1 REGION                                 (01 APR 1993)
     "              H2O FOREIGN HAS BEEN REDUCED AT ~1300 CM-1 AND IN ALL THE WINDOW REGIONS               (01 APR 1993)
 ckd_2.1      3.3   H2O SELF HAS BEEN MODIFIED IN THE 700-1500 CM-1 REGION                                 (01 MAY 1994)
     "              H2O FOREIGN HAS BEEN MODIFIED IN THE ENTIRE 1200-2200 CM-1 SPECTRAL RANGE              (01 MAY 1994)
 ckd_2.2      3.7   H2O SELF HAS BEEN INCREASED 30% IN THE MICROWAVE REGION                                (09 FEB 1996)
     "              N2 COLLISION INDUCED PURE ROTATION BAND ADDED                                          (09 FEB 1996)
     "              O3 CHAPPUIS CHANGED TO VALUES FROM MODTRAN3                                            (09 FEB 1996)
 ckd_2.2.2    3.12  INTERPOLATION EFFECTS BETWEEN HARTLEY HUGGINS DATA AROUND 40800 CM-1                   (18 SEP 1996)
 ckd_2.4.1    5.12  O2 COLLISION INDUCED FUNDAMENTAL BAND (1340-1850 CM-1) CHANGED TO THIBAULT ET AL., 1996   (MAR 1998)
     "              N2 COLLISION INDUCED FUNDAMENTAL BAND (2085-2670 CM-1) CHANGED TO LAFFERTY ET AL., 1996   (MAR 1998)
     "              H2O FOREIGN HAS BEEN MODIFIED IN THE 0-800 CM-1 AND 1200-2200 CM-1 RANGE BASED ON      (04 JUN 1999)
     "                       AERI-ER FROM SHEBA, TOBIN ET AL., 1998                                                     
     "              H2O SELF HAS BEEN INCREASED IN THE 0-200 CM-1 REGION                                   (04 JUN 1999)
     "              O2 COLLISION INDUCED BAND HAS BEEN ADDED  (9100 - 11000 CM-1); MLAWER ET AL. 1998      (16 AUG 1999)
     "              O2 COLLISION INDUCED BAND HAS BEEN CHANGED (7555 - 8486 CM-1); MATE ET AL. 1999        (10 FEB 2000)
 ckd_2.4.2    5.17  O2 COLLISION INDUCED BANDS HAVE BEEN ADDED (15000 - 29870 CM-1); GREENBLATT ET AL. 1990 (8 MAY 2000)
     "              The nu2 CO2 increased by a factor of 7: based on U  Wisc. AFWEX and AERI_xr at ARM NSA    (Jul 2002)
 mt_ckd_1.00  7.01  *********   The entire water vapor continuum has been revised   *********                 (Dec 2002)
     "              *********   This continuum is based on a new line shape/collision induced formulation, mt_ckd ******
 mt_ckd_1.1   9.1   H2O foreign modified in the 250-550 cm-1 region; results now consistent with ckd_2.4.1    (Aug 2004)
 mt_ckd_1.2   9.2   Collision induced nitrogen 0-350 cm-1 increased (~1.35):  Boissoles at al., 2003          (Sep 2004)
 mt_ckd_1.3  10.0   Nu2 CO2: with P-R line mixing included; factor of 7 increase has been reduceed to 4.5     (May 2006)
 mt_ckd_2.0  11.1   CO2: Based on Hartmann P-Q-R line mixing.  Modification to v3 band based on AIRS data.    (Jul 2007)
 mt_ckd_2.01 11.2   H2O foreign modified in 250-550 cm-1 region based on analyses of nsa aeri_er data.        (Sep 2007)
 mt_ckd_2.1  11.3   CO2: Fundamental change in the lblrtm fourth function with consequent changes in continuum(Nov 2007)
     "              Bug fix impacting the nitrogen continuum in the 0-350 cm-1 region.                        (Nov 2007)
 mt_ckd_2.2  11.4   Analytic Derivative (species retrievals): n2 continuum removed from Jacobian calculation  (Mar 2008)
 mt_ckd_2.3  11.5   Bug fix: corrects error in which Analytic Derivative result depends on starting wavenumber(Aug 2008)
 mt_ckd_2.4  11.6   H2O: modification to self and foreign continuum (microwave and IR ARM data 0-600 cm-1)    (Nov 2008)
 mt_ckd_2.5  11.7   CO2: modification from 2000-3200 cm-1 (AERI(ARM),IASI AIRS measurements); Temp. dep. added(Jan 2010)
     "              H2O: modification to self cont. 2000-3000 cm-1   (IASI data, fit to near-IR results of              
     "              Bicknell et al., 2006 and Fulghum and Tilleman,  1991                                               
 mt_ckd_2.5.1 11.8  Updated common block for constants                                                        (May 2010)
 mt_ckd_2.5.2 12.0  Minor bug fixes, updated continuum summary info,  made consistent with monortm contnm.f   (Jan 2011)
 mt_ckd_2.5.3  -    Cosmetic changes                                                                          (Mar 2015)
 mt_ckd_2.7  12.4   N2 1st overtone - Shapiro & Gush (1966) modified by Mlawer and Gombos based on solar FTS  (Apr 2015)
     "              Bug fix for analytic jacobians                                                            (Feb 2016)
 mt_ckd_2.8  12.5   N2-H2O from 2000-3000 cm-1,H2O self for 2000-3190 cm-1,H2O foreign in windows >1880 cm-1  (Jul 2016)
 mt_ckd_3.0  12.6   H2O: foreign/self 0-700/0-100 cm-1; RHUBC-II/-I; REFIR,AERI,SAO-FTS; Mlawer,Turner,Paine  (Nov 2016)
 mt_ckd_3.1  12.7   O2 A-band: Mlawer and Gombos based on analysis ofTCCON FTS measurements for OCO-2         (Jul 2017)
 mt_ckd_3.2  12.8   H2O self > 2000 cm-1 and tdep 1800-3500 cm-1: Campargue group and IASI obs; Mlawer et al. (Aug 2017)
 mt_ckd_3.3  12.9   O2 Far-UV: 55000-87000 cm-1 from Lu et al. (2010)                                         (Aug 2018)
 mt_ckd_3.4  12.10  O2 A-band: Mlawer re-analysis of TCCON FTS measurements consistent with OCO-2 ABSCO 5.1   (May 2020)
 mt_ckd_3.5  12.11  H2O self: MW - Payne et al. 2021 MWR study, FIR - Odintsova et al. 2020; self T: MW -     (Oct 2020)
     "              Payne et al., Katkov et al. 1995, and Tretyakov et al. 2016, FIR - Odintsova et al. and             
     "              Burch/Grynvak 1979, IR - Burch/Alt 1984 and Burch/Grynvak; H2O foreign: MW - Payne et al.           
                    ----------------------------------------------------------------------------------------------------
                    ----------------------------------------------------------------------------------------------------

                             P(MB)       T(K)

                           1013.000   260.00

         MOLECULAR AMOUNTS (MOL/CM**2) BY LAYER 

   H2O       CO2        O3       N2O        CO       CH4        O2      OTHER

 2.793E+17 9.636E+15 0.000E+00 0.000E+00 0.000E+00 0.000E+00 5.865E+18 2.204E+19


     0.000   0.000E+00
     2.000   5.382E-07
     4.000   2.149E-06
     6.000   4.826E-06
     8.000   8.568E-06
    10.000   1.337E-05
    12.000   1.923E-05
    14.000   2.616E-05
    16.000   3.414E-05
    18.000   4.316E-05
    20.000   5.320E-05
    22.000   6.410E-05
    24.000   7.585E-05
    26.000   8.872E-05
    28.000   1.030E-04
    30.000   1.189E-04
    32.000   1.362E-04
    34.000   1.547E-04
    36.000   1.749E-04
    38.000   1.971E-04
    40.000   2.219E-04
    42.000   2.494E-04
    44.000   2.794E-04
    46.000   3.115E-04
    48.000   3.454E-04
    50.000   3.806E-04
    52.000   4.182E-04
    54.000   4.586E-04
    56.000   4.999E-04
    58.000   5.407E-04
    60.000   5.792E-04
    62.000   6.156E-04
    64.000   6.508E-04
    66.000   6.849E-04
    68.000   7.177E-04
    70.000   7.493E-04
    72.000   7.797E-04
    74.000   8.091E-04
    76.000   8.372E-04
    78.000   8.636E-04
    80.000   8.879E-04
    82.000   9.096E-04
    84.000   9.290E-04
    86.000   9.468E-04
    88.000   9.636E-04
    90.000   9.802E-04
    92.000   9.966E-04
    94.000   1.013E-03
    96.000   1.028E-03
    98.000   1.041E-03
   100.000   1.054E-03
   102.000   1.064E-03
   104.000   1.073E-03
   106.000   1.081E-03
   108.000   1.088E-03
   110.000   1.096E-03
   112.000   1.104E-03
   114.000   1.113E-03
   116.000   1.121E-03
   118.000   1.129E-03
   120.000   1.135E-03
   122.000   1.140E-03
   124.000   1.145E-03
   126.000   1.148E-03
   128.000   1.151E-03
   130.000   1.153E-03
   132.000   1.155E-03
   134.000   1.156E-03
   136.000   1.156E-03
   138.000   1.156E-03
   140.000   1.155E-03
   142.000   1.153E-03
   144.000   1.150E-03
   146.000   1.147E-03
   148.000   1.144E-03
   150.000   1.140E-03
   152.000   1.138E-03
   154.000   1.135E-03
   156.000   1.132E-03
   158.000   1.127E-03
   160.000   1.119E-03
   162.000   1.108E-03
   164.000   1.093E-03
   166.000   1.077E-03
   168.000   1.059E-03
   170.000   1.042E-03
   172.000   1.024E-03
   174.000   1.005E-03
   176.000   9.850E-04
   178.000   9.663E-04
   180.000   9.492E-04
   182.000   9.340E-04
   184.000   9.201E-04
   186.000   9.072E-04
   188.000   8.950E-04
   190.000   8.831E-04
   192.000   8.723E-04
   194.000   8.627E-04
   196.000   8.534E-04
   198.000   8.434E-04
   200.000   8.316E-04
   202.000   8.176E-04
   204.000   8.020E-04
   206.000   7.856E-04
   208.000   7.690E-04
   210.000   7.530E-04
   212.000   7.377E-04
   214.000   7.228E-04
   216.000   7.079E-04
   218.000   6.924E-04
   220.000   6.760E-04
   222.000   6.585E-04
   224.000   6.402E-04
   226.000   6.213E-04
   228.000   6.022E-04
   230.000   5.830E-04
   232.000   5.631E-04
   234.000   5.424E-04
   236.000   5.218E-04
   238.000   5.024E-04
   240.000   4.853E-04
   242.000   4.709E-04
   244.000   4.584E-04
   246.000   4.473E-04
   248.000   4.370E-04
   250.000   4.268E-04
   252.000   4.167E-04
   254.000   4.071E-04
   256.000   3.980E-04
   258.000   3.897E-04
   260.000   3.821E-04
   262.000   3.759E-04
   264.000   3.710E-04
   266.000   3.665E-04
   268.000   3.616E-04
   270.000   3.554E-04
   272.000   3.475E-04
   274.000   3.385E-04
   276.000   3.289E-04
   278.000   3.194E-04
   280.000   3.105E-04
   282.000   3.023E-04
   284.000   2.944E-04
   286.000   2.867E-04
   288.000   2.790E-04
   290.000   2.711E-04
   292.000   2.631E-04
   294.000   2.549E-04
   296.000   2.467E-04
   298.000   2.386E-04
   300.000   2.307E-04
   302.000   2.227E-04
   304.000   2.145E-04
   306.000   2.066E-04
   308.000   1.995E-04
   310.000   1.937E-04
   312.000   1.898E-04
   314.000   1.875E-04
   316.000   1.859E-04
   318.000   1.840E-04
   320.000   1.810E-04
   322.000   1.768E-04
   324.000   1.718E-04
   326.000   1.664E-04
   328.000   1.608E-04
   330.000   1.553E-04
   332.000   1.498E-04
   334.000   1.440E-04
   336.000   1.383E-04
   338.000   1.328E-04
   340.000   1.279E-04
   342.000   1.235E-04
   344.000   1.196E-04
   346.000   1.160E-04
   348.000   1.125E-04
   350.000   1.090E-04
   352.000   1.053E-04
   354.000   1.016E-04
   356.000   9.806E-05
   358.000   9.459E-05
   360.000   9.128E-05
   362.000   8.808E-05
   364.000   8.497E-05
   366.000   8.199E-05
   368.000   7.920E-05
   370.000   7.663E-05
   372.000   7.435E-05
   374.000   7.232E-05
   376.000   7.046E-05
   378.000   6.866E-05
   380.000   6.684E-05
   382.000   6.497E-05
   384.000   6.314E-05
   386.000   6.134E-05
   388.000   5.958E-05
   390.000   5.785E-05
   392.000   5.611E-05
   394.000   5.434E-05
   396.000   5.264E-05
   398.000   5.109E-05
   400.000   4.978E-05
   402.000   4.880E-05
   404.000   4.808E-05
   406.000   4.750E-05
   408.000   4.694E-05
   410.000   4.627E-05
   412.000   4.546E-05
   414.000   4.460E-05
   416.000   4.372E-05
   418.000   4.289E-05
   420.000   4.213E-05
   422.000   4.148E-05
   424.000   4.090E-05
   426.000   4.035E-05
   428.000   3.983E-05
   430.000   3.928E-05
   432.000   3.874E-05
   434.000   3.821E-05
   436.000   3.768E-05
   438.000   3.713E-05
   440.000   3.654E-05
   442.000   3.587E-05
   444.000   3.515E-05
   446.000   3.441E-05
   448.000   3.368E-05
   450.000   3.302E-05
   452.000   3.241E-05
   454.000   3.184E-05
   456.000   3.130E-05
   458.000   3.078E-05
   460.000   3.030E-05
   462.000   2.986E-05
   464.000   2.946E-05
   466.000   2.909E-05
   468.000   2.871E-05
   470.000   2.829E-05
   472.000   2.783E-05
   474.000   2.735E-05
   476.000   2.685E-05
   478.000   2.635E-05
   480.000   2.587E-05
   482.000   2.538E-05
   484.000   2.490E-05
   486.000   2.442E-05
   488.000   2.395E-05
   490.000   2.350E-05
   492.000   2.304E-05
   494.000   2.259E-05
   496.000   2.215E-05
   498.000   2.174E-05
   500.000   2.136E-05
   502.000   2.103E-05
   504.000   2.074E-05
   506.000   2.047E-05
   508.000   2.020E-05
   510.000   1.991E-05
   512.000   1.960E-05
   514.000   1.928E-05
   516.000   1.895E-05
   518.000   1.862E-05
   520.000   1.830E-05
   522.000   1.798E-05
   524.000   1.766E-05
   526.000   1.734E-05
   528.000   1.703E-05
   530.000   1.672E-05
   532.000   1.641E-05
   534.000   1.611E-05
   536.000   1.581E-05
   538.000   1.552E-05
   540.000   1.524E-05
   542.000   1.497E-05
   544.000   1.472E-05
   546.000   1.447E-05
   548.000   1.423E-05
   550.000   1.399E-05
   552.000   1.375E-05
   554.000   1.351E-05
   556.000   1.327E-05
   558.000   1.304E-05
   560.000   1.281E-05
   562.000   1.259E-05
   564.000   1.237E-05
   566.000   1.215E-05
   568.000   1.193E-05
   570.000   1.171E-05
   572.000   1.149E-05
   574.000   1.127E-05
   576.000   1.105E-05
   578.000   1.083E-05
   580.000   1.063E-05
   582.000   1.043E-05
   584.000   1.024E-05
   586.000   1.005E-05
   588.000   9.872E-06
   590.000   9.700E-06
   592.000   9.538E-06
   594.000   9.388E-06
   596.000   9.248E-06
   598.000   9.111E-06
   600.000   8.977E-06
   602.000   8.845E-06
   604.000   8.716E-06
   606.000   8.590E-06
   608.000   8.468E-06
   610.000   8.350E-06
   612.000   8.237E-06
   614.000   8.131E-06
   616.000   8.032E-06
   618.000   7.940E-06
   620.000   7.856E-06
   622.000   7.783E-06
   624.000   7.728E-06
   626.000   7.699E-06
   628.000   7.696E-06
   630.000   7.720E-06
   632.000   7.778E-06
   634.000   7.869E-06
   636.000   7.993E-06
   638.000   8.152E-06
   640.000   8.345E-06
   642.000   8.548E-06
   644.000   9.233E-06
   646.000   1.019E-05
   648.000   1.113E-05
   650.000   1.204E-05
   652.000   1.291E-05
   654.000   1.372E-05
   656.000   1.446E-05
   658.000   1.512E-05
   660.000   1.570E-05
   662.000   1.616E-05
   664.000   1.650E-05
   666.000   1.672E-05
   668.000   1.680E-05
   670.000   1.675E-05
   672.000   1.655E-05
   674.000   1.622E-05
   676.000   1.577E-05
   678.000   1.519E-05
   680.000   1.450E-05
   682.000   1.370E-05
   684.000   1.278E-05
   686.000   1.179E-05
   688.000   1.070E-05
   690.000   9.536E-06
   692.000   8.297E-06
   694.000   7.492E-06
   696.000   6.931E-06
   698.000   6.501E-06
   700.000   6.118E-06
   702.000   5.779E-06
   704.000   5.484E-06
   706.000   5.231E-06
   708.000   5.018E-06
   710.000   4.842E-06
   712.000   4.698E-06
   714.000   4.583E-06
   716.000   4.490E-06
   718.000   4.413E-06
   720.000   4.347E-06
   722.000   4.289E-06
   724.000   4.236E-06
   726.000   4.185E-06
   728.000   4.137E-06
   730.000   4.088E-06
   732.000   4.039E-06
   734.000   3.990E-06
   736.000   3.939E-06
   738.000   3.888E-06
   740.000   3.837E-06
   742.000   3.786E-06
   744.000   3.735E-06
   746.000   3.688E-06
   748.000   3.652E-06
   750.000   3.616E-06
   752.000   3.581E-06
   754.000   3.546E-06
   756.000   3.511E-06
   758.000   3.478E-06
   760.000   3.447E-06
   762.000   3.417E-06
   764.000   3.389E-06
   766.000   3.362E-06
   768.000   3.336E-06
   770.000   3.310E-06
   772.000   3.285E-06
   774.000   3.260E-06
   776.000   3.235E-06
   778.000   3.210E-06
   780.000   3.185E-06
   782.000   3.160E-06
   784.000   3.135E-06
   786.000   3.110E-06
   788.000   3.085E-06
   790.000   3.058E-06
   792.000   3.032E-06
   794.000   3.004E-06
   796.000   2.977E-06
   798.000   2.948E-06
   800.000   2.920E-06
   802.000   2.891E-06
   804.000   2.862E-06
   806.000   2.832E-06
   808.000   2.803E-06
   810.000   2.775E-06
   812.000   2.748E-06
   814.000   2.722E-06
   816.000   2.697E-06
   818.000   2.673E-06
   820.000   2.648E-06
   822.000   2.624E-06
   824.000   2.600E-06
   826.000   2.577E-06
   828.000   2.554E-06
   830.000   2.532E-06
   832.000   2.511E-06
   834.000   2.490E-06
   836.000   2.470E-06
   838.000   2.450E-06
   840.000   2.430E-06
   842.000   2.410E-06
   844.000   2.390E-06
   846.000   2.371E-06
   848.000   2.351E-06
   850.000   2.331E-06
   852.000   2.312E-06
   854.000   2.293E-06
   856.000   2.274E-06
   858.000   2.255E-06
   860.000   2.236E-06
   862.000   2.217E-06
   864.000   2.199E-06
   866.000   2.181E-06
   868.000   2.162E-06
   870.000   2.144E-06
   872.000   2.126E-06
   874.000   2.108E-06
   876.000   2.090E-06
   878.000   2.072E-06
