                                                                                                                        
                  *** CONTINUA mt_ckd_4.1.1                                                                             
                                                                                 Most recent significant change         
                         H2O  AIR         200 -   700 CM-1              mt_ckd_4.1.1 - adjust for self FIR mod(Jan 2023)
                              SELF          0 - 20000 CM-1              mt_ckd_4.0 - revise code/data external(Sep 2022)
                              SELF  (T)     0 - 20000 CM-1              mt_ckd_3.6 - power law T dependence   (Jan 2022)
                         CO2  AIR           0 - 10000 CM-1              mt_ckd_2.5 - modify 2000-3000 cm-1    (Jan 2010)
                              AIR   (T)  2386 -  2434 CM-1              mt_ckd_2.5 - temperature dep. added   (Jan 2010)
                         N2   SELF  (T)     0 -   350 CM-1              ckd_2.2    - Borysow Fromhold         (Feb 1996)
                              AIR   (T)     0 -   350 CM-1              mt_ckd_2.1 - incl. O2 rel. efficiency (Sep 2004)
                              AIR   (T)  1993 -  2905 CM-1              mt_ckd_2.8 - N2-H2O Mlawer/Alvarado   (Mar 2016)
                              AIR        4340 -  4910 CM-1              mt_ckd_2.7 - Mlawer and Gombos        (May 2015)
                         O2   AIR   (T)  1340 -  1850 CM-1              ckd_2.4.1  - Thibault et al.          (Mar 1998)
                              O2/N2      7550 -  8486 CM-1              ckd_2.4.1  - Mate et al.              (Feb 2000)
                              AIR        9100 - 11000 CM-1              ckd_2.4.1  - Mlawer et al.            (Aug 1999)
                              AIR       12950 - 13220 CM-1 A-band       mt_ckd_3.4 - Mlawer                   (May 2020)
                              O2        15000 - 29870 CM-1              ckd_2.4.2  - Greenblatt et al.        (May 2000)
                              O2/N2     36000 -  >>>> CM-1 HERZBERG     ckd_0                                           
                              AIR       55000 - 87000 CM-1 FAR-UV       mt_ckd_3.3 - Lu et al.                (Aug 2018)
                         O3   AIR   (T)  9170 - 24565 CM-1 CHAPP/WULF   ckd_2.2                               (Feb 1996)
                                    (T) 27370 - 40800 CM-1 HARTL/HUGG   ckd_0                                           
                                        40800 - 54000 CM-1 HARTL/HUGG   ckd_0                                           
                                                                                                                        
                                                                                                                        
                                                                                                                        
                                                                                                                        
Continuum    LBL_n                      Description of Modification                                            Date     
---------    -----                    -------------------------------                                          ----     
                    H2O SELF HAS BEEN REDUCED IN THE 800-1200 CM-1 REGION                                  (01 SEP 1985)
                    03       TEMPERATURE DEPENDENCE HAS BEEN CORRECTED                                     (01 MAY 1987)
                    02       (1390-1760) HAS BEEN REDUCED (FACTOR = 0.78)                                  (07 MAR 1990)
 ckd_1.0      2.2   H2O SELF HAS BEEN REDUCED IN THE 1100-1500 CM-1 REGION                                 (01 APR 1993)
     "              H2O FOREIGN HAS BEEN REDUCED AT ~1300 CM-1 AND IN ALL THE WINDOW REGIONS               (01 APR 1993)
 ckd_2.1      3.3   H2O SELF HAS BEEN MODIFIED IN THE 700-1500 CM-1 REGION                                 (01 MAY 1994)
     "              H2O FOREIGN HAS BEEN MODIFIED IN THE ENTIRE 1200-2200 CM-1 SPECTRAL RANGE              (01 MAY 1994)
 ckd_2.2      3.7   H2O SELF HAS BEEN INCREASED 30% IN THE MICROWAVE REGION                                (09 FEB 1996)
     "              N2 COLLISION INDUCED PURE ROTATION BAND ADDED                                          (09 FEB 1996)
     "              O3 CHAPPUIS CHANGED TO VALUES FROM MODTRAN3                                            (09 FEB 1996)
 ckd_2.2.2    3.12  INTERPOLATION EFFECTS BETWEEN HARTLEY HUGGINS DATA AROUND 40800 CM-1                   (18 SEP 1996)
 ckd_2.4.1    5.12  O2 COLLISION INDUCED FUNDAMENTAL BAND (1340-1850 CM-1) CHANGED TO THIBAULT ET AL., 1996   (MAR 1998)
     "              N2 COLLISION INDUCED FUNDAMENTAL BAND (2085-2670 CM-1) CHANGED TO LAFFERTY ET AL., 1996   (MAR 1998)
     "              H2O FOREIGN HAS BEEN MODIFIED IN THE 0-800 CM-1 AND 1200-2200 CM-1 RANGE BASED ON      (04 JUN 1999)
     "                       AERI-ER FROM SHEBA, TOBIN ET AL., 1998                                                     
     "              H2O SELF HAS BEEN INCREASED IN THE 0-200 CM-1 REGION                                   (04 JUN 1999)
     "              O2 COLLISION INDUCED BAND HAS BEEN ADDED  (9100 - 11000 CM-1); MLAWER ET AL. 1998      (16 AUG 1999)
     "              O2 COLLISION INDUCED BAND HAS BEEN CHANGED (7555 - 8486 CM-1); MATE ET AL. 1999        (10 FEB 2000)
 ckd_2.4.2    5.17  O2 COLLISION INDUCED BANDS HAVE BEEN ADDED (15000 - 29870 CM-1); GREENBLATT ET AL. 1990 (8 MAY 2000)
     "              The nu2 CO2 increased by a factor of 7: based on U  Wisc. AFWEX and AERI_xr at ARM NSA    (Jul 2002)
 mt_ckd_1.00  7.01  *********   The entire water vapor continuum has been revised   *********                 (Dec 2002)
     "              *********   This continuum is based on a new line shape/collision induced formulation, mt_ckd ******
 mt_ckd_1.1   9.1   H2O foreign modified in the 250-550 cm-1 region; results now consistent with ckd_2.4.1    (Aug 2004)
 mt_ckd_1.2   9.2   Collision induced nitrogen 0-350 cm-1 increased (~1.35):  Boissoles at al., 2003          (Sep 2004)
 mt_ckd_1.3  10.0   Nu2 CO2: with P-R line mixing included; factor of 7 increase has been reduceed to 4.5     (May 2006)
 mt_ckd_2.0  11.1   CO2: Based on Hartmann P-Q-R line mixing.  Modification to v3 band based on AIRS data.    (Jul 2007)
 mt_ckd_2.01 11.2   H2O foreign modified in 250-550 cm-1 region based on analyses of nsa aeri_er data.        (Sep 2007)
 mt_ckd_2.1  11.3   CO2: Fundamental change in the lblrtm fourth function with consequent changes in continuum(Nov 2007)
     "              Bug fix impacting the nitrogen continuum in the 0-350 cm-1 region.                        (Nov 2007)
 mt_ckd_2.2  11.4   Analytic Derivative (species retrievals): n2 continuum removed from Jacobian calculation  (Mar 2008)
 mt_ckd_2.3  11.5   Bug fix: corrects error in which Analytic Derivative result depends on starting wavenumber(Aug 2008)
 mt_ckd_2.4  11.6   H2O: modification to self and foreign continuum (microwave and IR ARM data 0-600 cm-1)    (Nov 2008)
 mt_ckd_2.5  11.7   CO2: modification from 2000-3200 cm-1 (AERI(ARM),IASI AIRS measurements); Temp. dep. added(Jan 2010)
     "              H2O: modification to self cont. 2000-3000 cm-1   (IASI data, fit to near-IR results of              
     "              Bicknell et al., 2006 and Fulghum and Tilleman,  1991                                               
 mt_ckd_2.5.1 11.8  Updated common block for constants                                                        (May 2010)
 mt_ckd_2.5.2 12.0  Minor bug fixes, updated continuum summary info,  made consistent with monortm contnm.f   (Jan 2011)
 mt_ckd_2.5.3  -    Cosmetic changes                                                                          (Mar 2015)
 mt_ckd_2.7  12.4   N2 1st overtone - Shapiro & Gush (1966) modified by Mlawer and Gombos based on solar FTS  (Apr 2015)
     "              Bug fix for analytic jacobians                                                            (Feb 2016)
 mt_ckd_2.8  12.5   N2-H2O from 2000-3000 cm-1,H2O self for 2000-3190 cm-1,H2O foreign in windows >1880 cm-1  (Jul 2016)
 mt_ckd_3.0  12.6   H2O: foreign/self 0-700/0-100 cm-1; RHUBC-II/-I; REFIR,AERI,SAO-FTS; Mlawer,Turner,Paine  (Nov 2016)
 mt_ckd_3.1  12.7   O2 A-band: Mlawer and Gombos based on analysis ofTCCON FTS measurements for OCO-2         (Jul 2017)
 mt_ckd_3.2  12.8   H2O self > 2000 cm-1 and tdep 1800-3500 cm-1: Campargue group and IASI obs; Mlawer et al. (Aug 2017)
 mt_ckd_3.3  12.9   O2 Far-UV: 55000-87000 cm-1 from Lu et al. (2010)                                         (Aug 2018)
 mt_ckd_3.4  12.10  O2 A-band: Mlawer re-analysis of TCCON FTS measurements consistent with OCO-2 ABSCO 5.1   (May 2020)
 mt_ckd_3.5  12.11  H2O self: MW - Payne et al. 2021 MWR study, FIR - Odintsova et al. 2020; self T: MW -     (Oct 2020)
     "              Payne et al., Katkov et al. 1995, and Tretyakov et al. 2016, FIR - Odintsova et al. and             
     "              Burch/Grynvak 1979, IR - Burch/Alt 1984 and Burch/Grynvak; H2O foreign: MW - Payne et al.           
 mt_ckd_3.6  12.13  Water vapor self continuum temperature dependencecomputed as a power law (Mlawer, Mascio) (Jun 2022)
 mt_ckd_4.0  12.14  Water vapor continuum code/data now external (Cady-Pereira/Mlawer)                        (Sep 2022)
 mt_ckd_4.0.1       Added changes to handle negative frequencies for water vapor continuum                    (Nov 2022)
 mt_ckd_4.1  12.15  Revised foreign H2O continuum in far-IR to adjustfor v3.5 changes to self (Mlawer, Mascio)(Dec 2022)
 mt_ckd_4.1.1       Minor changes to MT_CKD_4.1 and MT_CKD_H2O_4.1                                            (Jan 2023)

                             P(MB)       T(K)

                           1013.000   296.00

         MOLECULAR AMOUNTS (MOL/CM**2) BY LAYER 

   H2O       CO2        O3       N2O        CO       CH4        O2      OTHER

 2.453E+17 8.464E+15 0.000E+00 0.000E+00 0.000E+00 0.000E+00 5.152E+18 1.936E+19


     0.000         NaN
    10.000   6.971E-06
    20.000   2.834E-05
    30.000   6.562E-05
    40.000   1.286E-04
    50.000   2.307E-04
    60.000   3.613E-04
    70.000   4.737E-04
    80.000   5.655E-04
    90.000   6.264E-04
   100.000   6.756E-04
   110.000   7.040E-04
   120.000   7.317E-04
   130.000   7.458E-04
   140.000   7.492E-04
   150.000   7.425E-04
   160.000   7.315E-04
   170.000   6.820E-04
   180.000   6.221E-04
   190.000   5.805E-04
   200.000   5.488E-04
   210.000   4.981E-04
   220.000   4.483E-04
   230.000   3.879E-04
   240.000   3.232E-04
   250.000   2.849E-04
   260.000   2.561E-04
   270.000   2.385E-04
   280.000   2.099E-04
   290.000   1.838E-04
   300.000   1.562E-04
   310.000   1.323E-04
   320.000   1.235E-04
   330.000   1.059E-04
   340.000   8.693E-05
   350.000   7.390E-05
   360.000   6.170E-05
   370.000   5.152E-05
   380.000   4.465E-05
   390.000   3.840E-05
   400.000   3.325E-05
   410.000   3.085E-05
   420.000   2.791E-05
   430.000   2.595E-05
   440.000   2.397E-05
   450.000   2.154E-05
   460.000   1.966E-05
   470.000   1.827E-05
   480.000   1.658E-05
   490.000   1.494E-05
   500.000   1.353E-05
   510.000   1.250E-05
   520.000   1.142E-05
   530.000   1.035E-05
   540.000   9.345E-06
   550.000   8.524E-06
   560.000   7.753E-06
   570.000   7.027E-06
   580.000   6.306E-06
   590.000   5.687E-06
   600.000   5.215E-06
   610.000   4.787E-06
   620.000   4.454E-06
   630.000   4.397E-06
   640.000   4.881E-06
   650.000   7.680E-06
   660.000   1.046E-05
   670.000   1.130E-05
   680.000   9.652E-06
   690.000   5.954E-06
   700.000   3.400E-06
   710.000   2.455E-06
   720.000   2.081E-06
   730.000   1.890E-06
   740.000   1.711E-06
   750.000   1.551E-06
   760.000   1.431E-06
   770.000   1.334E-06
   780.000   1.252E-06
   790.000   1.178E-06
   800.000   1.112E-06
   810.000   1.051E-06
   820.000   9.980E-07
   830.000   9.505E-07
   840.000   9.069E-07
   850.000   8.685E-07
   860.000   8.315E-07
   870.000   7.954E-07
   880.000   7.620E-07
   890.000   7.291E-07
   900.000   6.973E-07
   910.000   6.705E-07
   920.000   6.360E-07
   930.000   6.042E-07
   940.000   5.698E-07
   950.000   5.422E-07
   960.000   5.190E-07
   970.000   4.979E-07
   980.000   4.781E-07
   990.000   4.591E-07
  1000.000   4.413E-07
  1010.000   4.242E-07
  1020.000   4.086E-07
  1030.000   3.939E-07
  1040.000   3.804E-07
  1050.000   3.677E-07
  1060.000   3.561E-07
  1070.000   3.454E-07
  1080.000   3.361E-07
  1090.000   3.276E-07
  1100.000   3.202E-07
  1110.000   3.148E-07
  1120.000   3.102E-07
  1130.000   3.078E-07
  1140.000   3.074E-07
  1150.000   3.099E-07
  1160.000   3.138E-07
  1170.000   3.197E-07
  1180.000   3.292E-07
  1190.000   3.441E-07
  1200.000   3.625E-07
  1210.000   3.830E-07
  1220.000   4.136E-07
  1230.000   4.542E-07
  1240.000   5.108E-07
  1250.000   5.746E-07
  1260.000   6.421E-07
  1270.000   7.389E-07
  1280.000   8.649E-07
  1290.000   1.052E-06
  1300.000   1.263E-06
  1310.000   1.566E-06
  1320.000   1.994E-06
  1330.000   2.546E-06
  1340.000   3.388E-06
  1350.000   4.495E-06
  1360.000   5.929E-06
  1370.000   8.017E-06
  1380.000   1.052E-05
  1390.000   1.375E-05
  1400.000   1.804E-05
  1410.000   2.308E-05
  1420.000   2.948E-05
  1430.000   3.688E-05
  1440.000   4.568E-05
  1450.000   5.500E-05
  1460.000   6.531E-05
  1470.000   7.685E-05
  1480.000   9.120E-05
  1490.000   1.046E-04
  1500.000   1.192E-04
  1510.000   1.339E-04
  1520.000   1.481E-04
  1530.000   1.597E-04
  1540.000   1.650E-04
  1550.000   1.650E-04
  1560.000   1.591E-04
  1570.000   1.483E-04
  1580.000   1.365E-04
  1590.000   1.254E-04
  1600.000   1.196E-04
  1610.000   1.195E-04
  1620.000   1.262E-04
  1630.000   1.371E-04
  1640.000   1.466E-04
  1650.000   1.535E-04
  1660.000   1.586E-04
  1670.000   1.586E-04
  1680.000   1.533E-04
  1690.000   1.433E-04
  1700.000   1.320E-04
  1710.000   1.198E-04
  1720.000   1.052E-04
  1730.000   8.944E-05
  1740.000   7.669E-05
  1750.000   6.556E-05
  1760.000   5.695E-05
  1770.000   4.889E-05
  1780.000   4.206E-05
  1790.000   3.597E-05
  1800.000   3.076E-05
  1810.000   2.564E-05
  1820.000   2.180E-05
  1830.000   1.808E-05
  1840.000   1.539E-05
  1850.000   1.338E-05
  1860.000   1.114E-05
  1870.000   9.394E-06
  1880.000   7.382E-06
  1890.000   6.233E-06
  1900.000   5.031E-06
  1910.000   4.158E-06
  1920.000   3.531E-06
  1930.000   2.989E-06
  1940.000   2.607E-06
  1950.000   2.189E-06
  1960.000   1.825E-06
  1970.000   1.599E-06
  1980.000   1.339E-06
  1990.000   1.156E-06
  2000.000   1.004E-06
  2010.000   8.967E-07
  2020.000   7.911E-07
  2030.000   6.746E-07
  2040.000   5.953E-07
  2050.000   5.061E-07
  2060.000   4.414E-07
  2070.000   3.857E-07
  2080.000   3.364E-07
  2090.000   2.970E-07
  2100.000   2.586E-07
  2110.000   2.317E-07
  2120.000   2.128E-07
  2130.000   2.007E-07
  2140.000   2.002E-07
  2150.000   2.049E-07
  2160.000   2.179E-07
  2170.000   2.370E-07
  2180.000   2.641E-07
  2190.000   3.010E-07
  2200.000   3.486E-07
  2210.000   4.037E-07
  2220.000   4.676E-07
  2230.000   5.515E-07
  2240.000   6.793E-07
  2250.000   8.772E-07
  2260.000   1.130E-06
  2270.000   1.410E-06
  2280.000   1.838E-06
  2290.000   2.767E-06
  2300.000   5.570E-06
  2310.000   1.303E-05
  2320.000   2.654E-05
  2330.000   4.031E-05
  2340.000   5.237E-05
  2350.000   5.784E-05
  2360.000   5.008E-05
  2370.000   3.533E-05
  2380.000   1.831E-05
  2390.000   5.916E-06
  2400.000   2.000E-06
  2410.000   1.360E-06
  2420.000   1.140E-06
  2430.000   9.863E-07
  2440.000   8.590E-07
  2450.000   7.447E-07
  2460.000   6.343E-07
  2470.000   5.308E-07
  2480.000   4.398E-07
  2490.000   3.614E-07
  2500.000   2.966E-07
  2510.000   2.438E-07
  2520.000   2.033E-07
  2530.000   1.714E-07
  2540.000   1.461E-07
  2550.000   1.265E-07
  2560.000   1.093E-07
  2570.000   9.544E-08
  2580.000   8.501E-08
  2590.000   7.628E-08
  2600.000   6.909E-08
  2610.000   6.377E-08
  2620.000   5.900E-08
  2630.000   5.506E-08
  2640.000   5.267E-08
  2650.000   5.060E-08
  2660.000   4.869E-08
  2670.000   4.719E-08
  2680.000   4.574E-08
  2690.000   4.439E-08
  2700.000   4.325E-08
  2710.000   4.183E-08
  2720.000   4.067E-08
  2730.000   3.971E-08
  2740.000   3.883E-08
  2750.000   3.779E-08
  2760.000   3.685E-08
  2770.000   3.610E-08
  2780.000   3.539E-08
  2790.000   3.440E-08
  2800.000   3.320E-08
  2810.000   3.186E-08
  2820.000   3.053E-08
  2830.000   2.927E-08
  2840.000   2.834E-08
  2850.000   2.772E-08
  2860.000   2.751E-08
  2870.000   2.782E-08
  2880.000   2.855E-08
  2890.000   2.992E-08
  2900.000   3.179E-08
  2910.000   3.547E-08
  2920.000   4.023E-08
  2930.000   4.736E-08
  2940.000   5.869E-08
  2950.000   7.533E-08
  2960.000   9.774E-08
  2970.000   1.281E-07
  2980.000   1.701E-07
  2990.000   2.265E-07
  3000.000   2.905E-07
  3010.000   3.651E-07
  3020.000   4.412E-07
  3030.000   5.237E-07
  3040.000   6.130E-07
  3050.000   6.903E-07
  3060.000   7.654E-07
  3070.000   8.368E-07
  3080.000   9.132E-07
  3090.000   9.706E-07
  3100.000   1.001E-06
  3110.000   9.999E-07
  3120.000   9.636E-07
  3130.000   8.958E-07
  3140.000   8.288E-07
  3150.000   7.633E-07
  3160.000   7.238E-07
  3170.000   7.207E-07
  3180.000   7.584E-07
  3190.000   8.199E-07
  3200.000   8.814E-07
  3210.000   9.290E-07
  3220.000   9.506E-07
  3230.000   9.521E-07
  3240.000   9.303E-07
  3250.000   8.951E-07
  3260.000   8.456E-07
  3270.000   7.934E-07
  3280.000   7.363E-07
  3290.000   6.803E-07
  3300.000   6.297E-07
  3310.000   5.765E-07
  3320.000   5.371E-07
  3330.000   5.207E-07
  3340.000   5.253E-07
  3350.000   5.351E-07
  3360.000   5.677E-07
  3370.000   6.136E-07
  3380.000   6.641E-07
  3390.000   7.232E-07
  3400.000   7.989E-07
  3410.000   9.006E-07
  3420.000   1.041E-06
  3430.000   1.192E-06
  3440.000   1.383E-06
  3450.000   1.630E-06
  3460.000   1.925E-06
  3470.000   2.299E-06
  3480.000   2.732E-06
  3490.000   3.262E-06
  3500.000   3.922E-06
  3510.000   4.683E-06
  3520.000   5.594E-06
  3530.000   6.747E-06
  3540.000   8.244E-06
  3550.000   1.003E-05
  3560.000   1.237E-05
  3570.000   1.563E-05
  3580.000   1.973E-05
  3590.000   2.545E-05
  3600.000   3.206E-05
  3610.000   4.007E-05
  3620.000   4.916E-05
  3630.000   5.965E-05
  3640.000   6.992E-05
  3650.000   8.143E-05
  3660.000   9.039E-05
  3670.000   9.814E-05
  3680.000   1.034E-04
  3690.000   1.075E-04
  3700.000   1.105E-04
  3710.000   1.136E-04
  3720.000   1.173E-04
  3730.000   1.205E-04
  3740.000   1.227E-04
  3750.000   1.233E-04
  3760.000   1.224E-04
  3770.000   1.217E-04
  3780.000   1.209E-04
  3790.000   1.217E-04
  3800.000   1.250E-04
  3810.000   1.298E-04
  3820.000   1.313E-04
  3830.000   1.301E-04
  3840.000   1.224E-04
  3850.000   1.102E-04
  3860.000   9.631E-05
  3870.000   8.008E-05
  3880.000   6.470E-05
  3890.000   4.916E-05
  3900.000   3.699E-05
  3910.000   2.762E-05
  3920.000   2.053E-05
  3930.000   1.546E-05
  3940.000   1.158E-05
  3950.000   9.102E-06
  3960.000   7.242E-06
  3970.000   5.937E-06
  3980.000   4.902E-06
  3990.000   4.113E-06
  4000.000   3.540E-06
  4010.000   3.061E-06
  4020.000   2.687E-06
  4030.000   2.354E-06
  4040.000   2.072E-06
  4050.000   1.823E-06
  4060.000   1.600E-06
  4070.000   1.410E-06
  4080.000   1.243E-06
  4090.000   1.098E-06
  4100.000   9.763E-07
  4110.000   8.701E-07
  4120.000   7.715E-07
  4130.000   6.875E-07
  4140.000   6.085E-07
  4150.000   5.407E-07
  4160.000   4.832E-07
  4170.000   4.275E-07
  4180.000   3.793E-07
  4190.000   3.361E-07
  4200.000   2.988E-07
  4210.000   2.650E-07
  4220.000   2.345E-07
  4230.000   2.072E-07
