                                                                                                                        
                                                                                                                        
                  *** CONTINUA mt_ckd_3.0                                                                               
                                                                                 Most recent significant change         
                         H2O  SELF  (T)     0 - 20000 CM-1              mt_ckd_3.0 - modify 0-100 cm-1        (Nov 2016)
                              AIR           0 - 20000 CM-1              mt_ckd_3.0 - modify 0-700 cm-1        (Nov 2016)
                         CO2  AIR           0 - 10000 CM-1              mt_ckd_2.5 - modify 2000-3000 cm-1    (Jan 2010)
                              AIR   (T)  2386 -  2434 CM-1              mt_ckd_2.5 - temperature dep. added   (Jan 2010)
                         N2   SELF  (T)     0 -   350 CM-1              ckd_2.2    - Borysow Fromhold         (Feb 1996)
                              AIR   (T)     0 -   350 CM-1              mt_ckd_2.1 - incl. O2 rel. efficiency (Sep 2004)
                              AIR   (T)  1993 -  2905 CM-1              mt_ckd_2.8 - N2-H2O Mlawer/Alvarado   (Mar 2016)
                              AIR        4340 -  4910 CM-1              mt_ckd_2.7 - Mlawer and Gombos        (May 2015)
                         O2   AIR   (T)  1340 -  1850 CM-1              ckd_2.4.1  - Thibault et al.          (Mar 1998)
                              O2/N2      7550 -  8486 CM-1              ckd_2.4.1  - Mate et al.              (Feb 2000)
                              AIR        9100 - 11000 CM-1              ckd_2.4.1  - Mlawer et al.            (Aug 1999)
                              O2        15000 - 29870 CM-1              ckd_2.4.2  - Greenblatt et al.        (May 2000)
                              O2/N2     36000 -  >>>> CM-1 HERZBERG     ckd_0                                           
                         O3   AIR   (T)  9170 - 24565 CM-1 CHAPP/WULF   ckd_2.2                               (Feb 1996)
                                    (T) 27370 - 40800 CM-1 HARTL/HUGG   ckd_0                                           
                                        40800 - 54000 CM-1 HARTL/HUGG   ckd_0                                           
                                                                                                                        
                                                                                                                        
                                                                                                                        
                                                                                                                        
Continuum    LBL_n                      Description of Modification                                            Date     
---------    -----                    -------------------------------                                          ----     
                    H2O SELF HAS BEEN REDUCED IN THE 800-1200 CM-1 REGION                                  (01 SEP 1985)
                    03       TEMPERATURE DEPENDENCE HAS BEEN CORRECTED                                     (01 MAY 1987)
                    02       (1390-1760) HAS BEEN REDUCED (FACTOR = 0.78)                                  (07 MAR 1990)
 ckd_1.0      2.2   H2O SELF HAS BEEN REDUCED IN THE 1100-1500 CM-1 REGION                                 (01 APR 1993)
     "              H2O FOREIGN HAS BEEN REDUCED AT ~1300 CM-1 AND IN ALL THE WINDOW REGIONS               (01 APR 1993)
 ckd_2.1      3.3   H2O SELF HAS BEEN MODIFIED IN THE 700-1500 CM-1 REGION                                 (01 MAY 1994)
     "              H2O FOREIGN HAS BEEN MODIFIED IN THE ENTIRE 1200-2200 CM-1 SPECTRAL RANGE              (01 MAY 1994)
 ckd_2.2      3.7   H2O SELF HAS BEEN INCREASED 30% IN THE MICROWAVE REGION                                (09 FEB 1996)
     "              N2 COLLISION INDUCED PURE ROTATION BAND ADDED                                          (09 FEB 1996)
     "              O3 CHAPPUIS CHANGED TO VALUES FROM MODTRAN3                                            (09 FEB 1996)
 ckd_2.2.2    3.12  INTERPOLATION EFFECTS BETWEEN HARTLEY HUGGINS DATA AROUND 40800 CM-1                   (18 SEP 1996)
 ckd_2.4.1    5.12  O2 COLLISION INDUCED FUNDAMENTAL BAND (1340-1850 CM-1) CHANGED TO THIBAULT ET AL., 1996   (MAR 1998)
     "              N2 COLLISION INDUCED FUNDAMENTAL BAND (2085-2670 CM-1) CHANGED TO LAFFERTY ET AL., 1996   (MAR 1998)
     "              H2O FOREIGN HAS BEEN MODIFIED IN THE 0-800 CM-1 AND 1200-2200 CM-1 RANGE BASED ON      (04 JUN 1999)
     "                       AERI-ER FROM SHEBA, TOBIN ET AL., 1998                                                     
     "              H2O SELF HAS BEEN INCREASED IN THE 0-200 CM-1 REGION                                   (04 JUN 1999)
     "              O2 COLLISION INDUCED BAND HAS BEEN ADDED  (9100 - 11000 CM-1); MLAWER ET AL. 1998      (16 AUG 1999)
     "              O2 COLLISION INDUCED BAND HAS BEEN CHANGED (7555 - 8486 CM-1); MATE ET AL. 1999        (10 FEB 2000)
 ckd_2.4.2    5.17  O2 COLLISION INDUCED BANDS HAVE BEEN ADDED (15000 - 29870 CM-1); GREENBLATT ET AL. 1990 (8 MAY 2000)
     "              The nu2 CO2 increased by a factor of 7: based on U  Wisc. AFWEX and AERI_xr at ARM NSA    (Jul 2002)
 mt_ckd_1.00  7.01  *********   The entire water vapor continuum has been revised   *********                 (Dec 2002)
     "              *********   This continuum is based on a new line shape/collision induced formulation, mt_ckd ******
 mt_ckd_1.1   9.1   H2O foreign modified in the 250-550 cm-1 region; results now consistent with ckd_2.4.1    (Aug 2004)
 mt_ckd_1.2   9.2   Collision induced nitrogen 0-350 cm-1 increased (~1.35):  Boissoles at al., 2003          (Sep 2004)
 mt_ckd_1.3  10.0   Nu2 CO2: with P-R line mixing included; factor of 7 increase has been reduceed to 4.5     (May 2006)
 mt_ckd_2.0  11.1   CO2: Based on Hartmann P-Q-R line mixing.  Modification to v3 band based on AIRS data.    (Jul 2007)
 mt_ckd_2.01 11.2   H2O foreign modified in 250-550 cm-1 region based on analyses of nsa aeri_er data.        (Sep 2007)
 mt_ckd_2.1  11.3   CO2: Fundamental change in the lblrtm fourth function with consequent changes in continuum(Nov 2007)
     "              Bug fix impacting the nitrogen continuum in the 0-350 cm-1 region.                        (Nov 2007)
 mt_ckd_2.2  11.4   Analytic Derivative (species retrievals): n2 continuum removed from Jacobian calculation  (Mar 2008)
 mt_ckd_2.3  11.5   Bug fix: corrects error in which Analytic Derivative result depends on starting wavenumber(Aug 2008)
 mt_ckd_2.4  11.6   H2O: modification to self and foreign continuum (microwave and IR ARM data 0-600 cm-1)    (Nov 2008)
 mt_ckd_2.5  11.7   CO2: modification from 2000-3200 cm-1 (AERI(ARM),IASI AIRS measurements); Temp. dep. added(Jan 2010)
     "              H2O: modification to self cont. 2000-3000 cm-1   (IASI data, fit to near-IR results of              
     "              Bicknell et al., 2006 and Fulghum and Tilleman,  1991                                               
 mt_ckd_2.5.1 11.8  Updated common block for constants                                                        (May 2010)
 mt_ckd_2.5.2 12.0  Minor bug fixes, updated continuum summary info,  made consistent with monortm contnm.f   (Jan 2011)
 mt_ckd_2.5.3  -    Cosmetic changes                                                                          (Mar 2015)
 mt_ckd_2.7   12.4  N2 1st overtone - Shapiro & Gush (1966) modified by Mlawer and Gombos based on solar FTS  (Apr 2015)
                    Bug fix for analytic jacobians                                                            (Feb 2016)
 mt_ckd_2.8   12.5  N2-H2O from 2000-3000 cm-1,H2O self for 2000-3190 cm-1,H2O foreign in windows >1880 cm-1  (Jul 2016)
 mt_ckd_3.0   12.6  H2O: foreign/self 0-700/0-100 cm-1; RHUBC-II/-I; REFIR,AERI,SAO-FTS; Mlawer,Turner,Paine  (Nov 2016)
                    ----------------------------------------------------------------------------------------------------
                    ----------------------------------------------------------------------------------------------------

                             P(MB)       T(K)

                           1013.000   296.00

         MOLECULAR AMOUNTS (MOL/CM**2) BY LAYER 

   H2O       CO2        O3       N2O        CO       CH4        O2      OTHER

 2.453E+17 8.464E+15 0.000E+00 0.000E+00 0.000E+00 0.000E+00 5.152E+18 1.936E+19


     0.000   0.000E+00
     2.000   6.315E-07
     4.000   1.508E-06
     6.000   2.765E-06
     8.000   4.538E-06
    10.000   6.961E-06
    12.000   9.996E-06
    14.000   1.355E-05
    16.000   1.768E-05
    18.000   2.245E-05
    20.000   2.791E-05
    22.000   3.386E-05
    24.000   4.026E-05
    26.000   4.742E-05
    28.000   5.564E-05
    30.000   6.522E-05
    32.000   7.606E-05
    34.000   8.795E-05
    36.000   1.011E-04
    38.000   1.156E-04
    40.000   1.316E-04
    42.000   1.491E-04
    44.000   1.682E-04
    46.000   1.886E-04
    48.000   2.104E-04
    50.000   2.337E-04
    52.000   2.591E-04
    54.000   2.867E-04
    56.000   3.153E-04
    58.000   3.436E-04
    60.000   3.703E-04
    62.000   3.954E-04
    64.000   4.198E-04
    66.000   4.434E-04
    68.000   4.662E-04
    70.000   4.883E-04
    72.000   5.099E-04
    74.000   5.309E-04
    76.000   5.511E-04
    78.000   5.701E-04
    80.000   5.875E-04
    82.000   6.031E-04
    84.000   6.171E-04
    86.000   6.300E-04
    88.000   6.421E-04
    90.000   6.540E-04
    92.000   6.657E-04
    94.000   6.768E-04
    96.000   6.874E-04
    98.000   6.972E-04
   100.000   7.062E-04
   102.000   7.143E-04
   104.000   7.215E-04
   106.000   7.281E-04
   108.000   7.344E-04
   110.000   7.406E-04
   112.000   7.469E-04
   114.000   7.530E-04
   116.000   7.590E-04
   118.000   7.645E-04
   120.000   7.695E-04
   122.000   7.740E-04
   124.000   7.780E-04
   126.000   7.816E-04
   128.000   7.847E-04
   130.000   7.873E-04
   132.000   7.895E-04
   134.000   7.913E-04
   136.000   7.926E-04
   138.000   7.931E-04
   140.000   7.929E-04
   142.000   7.914E-04
   144.000   7.889E-04
   146.000   7.858E-04
   148.000   7.828E-04
   150.000   7.805E-04
   152.000   7.798E-04
   154.000   7.803E-04
   156.000   7.806E-04
   158.000   7.794E-04
   160.000   7.753E-04
   162.000   7.674E-04
   164.000   7.566E-04
   166.000   7.442E-04
   168.000   7.315E-04
   170.000   7.196E-04
   172.000   7.083E-04
   174.000   6.969E-04
   176.000   6.856E-04
   178.000   6.746E-04
   180.000   6.644E-04
   182.000   6.548E-04
   184.000   6.457E-04
   186.000   6.371E-04
   188.000   6.289E-04
   190.000   6.209E-04
   192.000   6.134E-04
   194.000   6.066E-04
   196.000   5.999E-04
   198.000   5.929E-04
   200.000   5.852E-04
   202.000   5.766E-04
   204.000   5.675E-04
   206.000   5.580E-04
   208.000   5.482E-04
   210.000   5.382E-04
   212.000   5.280E-04
   214.000   5.176E-04
   216.000   5.069E-04
   218.000   4.960E-04
   220.000   4.848E-04
   222.000   4.734E-04
   224.000   4.618E-04
   226.000   4.500E-04
   228.000   4.378E-04
   230.000   4.251E-04
   232.000   4.114E-04
   234.000   3.967E-04
   236.000   3.819E-04
   238.000   3.680E-04
   240.000   3.559E-04
   242.000   3.461E-04
   244.000   3.378E-04
   246.000   3.305E-04
   248.000   3.237E-04
   250.000   3.170E-04
   252.000   3.101E-04
   254.000   3.036E-04
   256.000   2.975E-04
   258.000   2.917E-04
   260.000   2.865E-04
   262.000   2.823E-04
   264.000   2.788E-04
   266.000   2.757E-04
   268.000   2.722E-04
   270.000   2.679E-04
   272.000   2.624E-04
   274.000   2.561E-04
   276.000   2.494E-04
   278.000   2.428E-04
   280.000   2.366E-04
   282.000   2.310E-04
   284.000   2.256E-04
   286.000   2.203E-04
   288.000   2.150E-04
   290.000   2.094E-04
   292.000   2.035E-04
   294.000   1.974E-04
   296.000   1.912E-04
   298.000   1.851E-04
   300.000   1.793E-04
   302.000   1.735E-04
   304.000   1.678E-04
   306.000   1.624E-04
   308.000   1.574E-04
   310.000   1.533E-04
   312.000   1.503E-04
   314.000   1.484E-04
   316.000   1.469E-04
   318.000   1.452E-04
   320.000   1.428E-04
   322.000   1.396E-04
   324.000   1.360E-04
   326.000   1.321E-04
   328.000   1.281E-04
   330.000   1.241E-04
   332.000   1.199E-04
   334.000   1.154E-04
   336.000   1.109E-04
   338.000   1.067E-04
   340.000   1.029E-04
   342.000   9.961E-05
   344.000   9.676E-05
   346.000   9.414E-05
   348.000   9.158E-05
   350.000   8.889E-05
   352.000   8.602E-05
   354.000   8.310E-05
   356.000   8.021E-05
   358.000   7.741E-05
   360.000   7.474E-05
   362.000   7.217E-05
   364.000   6.968E-05
   366.000   6.728E-05
   368.000   6.503E-05
   370.000   6.294E-05
   372.000   6.108E-05
   374.000   5.941E-05
   376.000   5.787E-05
   378.000   5.637E-05
   380.000   5.484E-05
   382.000   5.327E-05
   384.000   5.172E-05
   386.000   5.019E-05
   388.000   4.870E-05
   390.000   4.725E-05
   392.000   4.581E-05
   394.000   4.438E-05
   396.000   4.300E-05
   398.000   4.172E-05
   400.000   4.061E-05
   402.000   3.972E-05
   404.000   3.900E-05
   406.000   3.838E-05
   408.000   3.778E-05
   410.000   3.714E-05
   412.000   3.642E-05
   414.000   3.570E-05
   416.000   3.497E-05
   418.000   3.427E-05
   420.000   3.360E-05
   422.000   3.298E-05
   424.000   3.238E-05
   426.000   3.181E-05
   428.000   3.125E-05
   430.000   3.070E-05
   432.000   3.017E-05
   434.000   2.967E-05
   436.000   2.917E-05
   438.000   2.866E-05
   440.000   2.811E-05
   442.000   2.751E-05
   444.000   2.687E-05
   446.000   2.622E-05
   448.000   2.559E-05
   450.000   2.501E-05
   452.000   2.449E-05
   454.000   2.400E-05
   456.000   2.353E-05
   458.000   2.309E-05
   460.000   2.266E-05
   462.000   2.226E-05
   464.000   2.189E-05
   466.000   2.153E-05
   468.000   2.116E-05
   470.000   2.078E-05
   472.000   2.038E-05
   474.000   1.997E-05
   476.000   1.955E-05
   478.000   1.913E-05
   480.000   1.872E-05
   482.000   1.831E-05
   484.000   1.791E-05
   486.000   1.751E-05
   488.000   1.712E-05
   490.000   1.673E-05
   492.000   1.635E-05
   494.000   1.598E-05
   496.000   1.561E-05
   498.000   1.527E-05
   500.000   1.495E-05
   502.000   1.467E-05
   504.000   1.443E-05
   506.000   1.421E-05
   508.000   1.398E-05
   510.000   1.375E-05
   512.000   1.350E-05
   514.000   1.324E-05
   516.000   1.298E-05
   518.000   1.272E-05
   520.000   1.246E-05
   522.000   1.221E-05
   524.000   1.195E-05
   526.000   1.170E-05
   528.000   1.145E-05
   530.000   1.120E-05
   532.000   1.096E-05
   534.000   1.072E-05
   536.000   1.048E-05
   538.000   1.025E-05
   540.000   1.004E-05
   542.000   9.833E-06
   544.000   9.640E-06
   546.000   9.454E-06
   548.000   9.272E-06
   550.000   9.090E-06
   552.000   8.908E-06
   554.000   8.728E-06
   556.000   8.551E-06
   558.000   8.377E-06
   560.000   8.206E-06
   562.000   8.039E-06
   564.000   7.877E-06
   566.000   7.717E-06
   568.000   7.559E-06
   570.000   7.399E-06
   572.000   7.238E-06
   574.000   7.075E-06
   576.000   6.914E-06
   578.000   6.757E-06
   580.000   6.606E-06
   582.000   6.460E-06
   584.000   6.318E-06
   586.000   6.181E-06
   588.000   6.050E-06
   590.000   5.928E-06
   592.000   5.816E-06
   594.000   5.716E-06
   596.000   5.625E-06
   598.000   5.537E-06
   600.000   5.448E-06
   602.000   5.358E-06
   604.000   5.269E-06
   606.000   5.182E-06
   608.000   5.096E-06
   610.000   5.013E-06
   612.000   4.932E-06
   614.000   4.855E-06
   616.000   4.783E-06
   618.000   4.716E-06
   620.000   4.656E-06
   622.000   4.607E-06
   624.000   4.571E-06
   626.000   4.556E-06
   628.000   4.560E-06
   630.000   4.585E-06
   632.000   4.636E-06
   634.000   4.712E-06
   636.000   4.814E-06
   638.000   4.941E-06
   640.000   5.094E-06
   642.000   5.254E-06
   644.000   5.775E-06
   646.000   6.498E-06
   648.000   7.213E-06
   650.000   7.903E-06
   652.000   8.562E-06
   654.000   9.177E-06
   656.000   9.747E-06
   658.000   1.025E-05
   660.000   1.069E-05
   662.000   1.104E-05
   664.000   1.131E-05
   666.000   1.148E-05
   668.000   1.155E-05
   670.000   1.151E-05
   672.000   1.137E-05
   674.000   1.113E-05
   676.000   1.079E-05
   678.000   1.036E-05
   680.000   9.843E-06
   682.000   9.249E-06
   684.000   8.578E-06
   686.000   7.839E-06
   688.000   7.019E-06
   690.000   6.114E-06
   692.000   5.111E-06
   694.000   4.396E-06
   696.000   3.859E-06
   698.000   3.442E-06
   700.000   3.115E-06
   702.000   2.894E-06
   704.000   2.761E-06
   706.000   2.682E-06
   708.000   2.625E-06
   710.000   2.558E-06
   712.000   2.470E-06
   714.000   2.377E-06
   716.000   2.288E-06
   718.000   2.208E-06
   720.000   2.143E-06
   722.000   2.093E-06
   724.000   2.046E-06
   726.000   2.003E-06
   728.000   1.961E-06
   730.000   1.920E-06
   732.000   1.880E-06
   734.000   1.840E-06
   736.000   1.800E-06
   738.000   1.760E-06
   740.000   1.720E-06
   742.000   1.680E-06
   744.000   1.641E-06
   746.000   1.604E-06
   748.000   1.577E-06
   750.000   1.551E-06
   752.000   1.525E-06
   754.000   1.500E-06
   756.000   1.476E-06
   758.000   1.453E-06
   760.000   1.431E-06
   762.000   1.410E-06
   764.000   1.390E-06
   766.000   1.371E-06
   768.000   1.352E-06
   770.000   1.334E-06
   772.000   1.317E-06
   774.000   1.300E-06
   776.000   1.283E-06
   778.000   1.267E-06
   780.000   1.252E-06
   782.000   1.236E-06
   784.000   1.221E-06
   786.000   1.207E-06
   788.000   1.192E-06
   790.000   1.178E-06
   792.000   1.164E-06
   794.000   1.151E-06
   796.000   1.138E-06
   798.000   1.125E-06
   800.000   1.112E-06
   802.000   1.100E-06
   804.000   1.087E-06
   806.000   1.075E-06
   808.000   1.063E-06
   810.000   1.051E-06
   812.000   1.040E-06
   814.000   1.029E-06
   816.000   1.019E-06
   818.000   1.008E-06
   820.000   9.980E-07
   822.000   9.881E-07
   824.000   9.784E-07
   826.000   9.690E-07
   828.000   9.597E-07
   830.000   9.505E-07
   832.000   9.414E-07
   834.000   9.325E-07
   836.000   9.237E-07
   838.000   9.151E-07
   840.000   9.068E-07
   842.000   8.988E-07
   844.000   8.910E-07
   846.000   8.835E-07
   848.000   8.760E-07
   850.000   8.685E-07
   852.000   8.610E-07
   854.000   8.535E-07
   856.000   8.461E-07
   858.000   8.388E-07
   860.000   8.314E-07
   862.000   8.241E-07
   864.000   8.169E-07
   866.000   8.097E-07
   868.000   8.025E-07
   870.000   7.955E-07
   872.000   7.887E-07
   874.000   7.819E-07
   876.000   7.753E-07
   878.000   7.686E-07
   880.000   7.620E-07
   882.000   7.553E-07
   884.000   7.487E-07
   886.000   7.421E-07
   888.000   7.355E-07
   890.000   7.290E-07
   892.000   7.225E-07
   894.000   7.159E-07
   896.000   7.095E-07
   898.000   7.032E-07
   900.000   6.972E-07
   902.000   6.917E-07
   904.000   6.866E-07
   906.000   6.815E-07
   908.000   6.763E-07
   910.000   6.705E-07
   912.000   6.641E-07
   914.000   6.571E-07
   916.000   6.499E-07
   918.000   6.428E-07
   920.000   6.359E-07
   922.000   6.294E-07
   924.000   6.231E-07
   926.000   6.169E-07
   928.000   6.106E-07
   930.000   6.041E-07
   932.000   5.973E-07
   934.000   5.903E-07
   936.000   5.832E-07
   938.000   5.763E-07
   940.000   5.698E-07
   942.000   5.638E-07
   944.000   5.581E-07
   946.000   5.526E-07
   948.000   5.473E-07
   950.000   5.422E-07
   952.000   5.372E-07
   954.000   5.325E-07
   956.000   5.279E-07
   958.000   5.235E-07
   960.000   5.190E-07
   962.000   5.147E-07
   964.000   5.104E-07
   966.000   5.062E-07
   968.000   5.021E-07
   970.000   4.980E-07
   972.000   4.939E-07
   974.000   4.899E-07
